# Data adapted from Fiorenza and smoothed to IRTF (0.002 um - triangle)
# Wavelength (microns)    Spectral Luminosity (W micron-1)
1
6.955e5
      1.20000  1.47558e+26
      1.20100  1.46883e+26
      1.20200  1.46208e+26
      1.20300  1.45533e+26
      1.20400  1.44858e+26
      1.20500  1.44183e+26
      1.20600  1.43508e+26
      1.20700  1.42833e+26
      1.20800  1.42158e+26
      1.20900  1.41484e+26
      1.21000  1.40809e+26
      1.21100  1.40134e+26
      1.21200  1.39299e+26
      1.21300  1.38708e+26
      1.21400  1.38733e+26
      1.21500  1.38783e+26
      1.21600  1.38467e+26
      1.21700  1.37407e+26
      1.21800  1.36678e+26
      1.21900  1.36241e+26
      1.22000  1.36614e+26
      1.22100  1.36509e+26
      1.22200  1.36048e+26
      1.22300  1.35498e+26
      1.22400  1.35825e+26
      1.22500  1.35680e+26
      1.22600  1.34488e+26
      1.22700  1.32602e+26
      1.22800  1.33729e+26
      1.22900  1.33583e+26
      1.23000  1.33916e+26
      1.23100  1.33883e+26
      1.23200  1.33794e+26
      1.23300  1.33380e+26
      1.23400  1.32890e+26
      1.23500  1.32643e+26
      1.23600  1.32595e+26
      1.23700  1.32559e+26
      1.23800  1.32099e+26
      1.23900  1.30836e+26
      1.24000  1.30894e+26
      1.24100  1.30711e+26
      1.24200  1.29789e+26
      1.24300  1.29083e+26
      1.24400  1.29596e+26
      1.24500  1.29899e+26
      1.24600  1.29762e+26
      1.24700  1.30110e+26
      1.24800  1.29919e+26
      1.24900  1.29980e+26
      1.25000  1.29824e+26
      1.25100  1.29572e+26
      1.25200  1.28805e+26
      1.25300  1.28951e+26
      1.25400  1.28791e+26
      1.25500  1.28082e+26
      1.25600  1.27395e+26
      1.25700  1.27179e+26
      1.25800  1.26841e+26
      1.25900  1.27100e+26
      1.26000  1.26776e+26
      1.26100  1.25972e+26
      1.26200  1.26044e+26
      1.26300  1.25322e+26
      1.26400  1.24992e+26
      1.26500  1.25094e+26
      1.26600  1.25607e+26
      1.26700  1.25014e+26
      1.26800  1.23679e+26
      1.26900  1.24944e+26
      1.27000  1.25337e+26
      1.27100  1.25508e+26
      1.27200  1.25440e+26
      1.27300  1.25139e+26
      1.27400  1.24650e+26
      1.27500  1.24803e+26
      1.27600  1.24575e+26
      1.27700  1.24157e+26
      1.27800  1.23527e+26
      1.27900  1.22412e+26
      1.28000  1.20073e+26
      1.28100  1.12998e+26
      1.28200  1.07459e+26
      1.28300  1.14596e+26
      1.28400  1.17834e+26
      1.28500  1.19701e+26
      1.28600  1.20675e+26
      1.28700  1.20906e+26
      1.28800  1.20687e+26
      1.28900  1.20275e+26
      1.29000  1.18953e+26
      1.29100  1.19774e+26
      1.29200  1.19927e+26
      1.29300  1.19522e+26
      1.29400  1.19393e+26
      1.29500  1.19271e+26
      1.29600  1.19057e+26
      1.29700  1.18290e+26
      1.29800  1.17965e+26
      1.29900  1.18152e+26
      1.30000  1.17827e+26
      1.30100  1.17467e+26
      1.30200  1.17071e+26
      1.30300  1.15940e+26
      1.30400  1.16486e+26
      1.30500  1.16233e+26
      1.30600  1.16325e+26
      1.30700  1.16191e+26
      1.30800  1.15962e+26
      1.30900  1.15516e+26
      1.31000  1.14382e+26
      1.31100  1.14490e+26
      1.31200  1.12471e+26
      1.31300  1.13704e+26
      1.31400  1.13014e+26
      1.31500  1.11115e+26
      1.31600  1.13000e+26
      1.31700  1.12343e+26
      1.31800  1.11613e+26
      1.31900  1.12974e+26
      1.32000  1.12873e+26
      1.32100  1.12871e+26
      1.32200  1.12793e+26
      1.32300  1.12799e+26
      1.32400  1.12424e+26
      1.32500  1.11794e+26
      1.32600  1.11219e+26
      1.32700  1.10978e+26
      1.32800  1.09863e+26
      1.32900  1.08819e+26
      1.33000  1.09782e+26
      1.33100  1.09231e+26
      1.33200  1.08384e+26
      1.33300  1.09532e+26
      1.33400  1.09559e+26
      1.33500  1.09143e+26
      1.33600  1.09131e+26
      1.33700  1.08565e+26
      1.33800  1.07857e+26
      1.33900  1.06719e+26
      1.34000  1.07302e+26
      1.34100  1.07163e+26
      1.34200  1.07147e+26
      1.34300  1.06994e+26
      1.34400  1.07066e+26
      1.34500  1.06585e+26
      1.34600  1.06203e+26
      1.34700  1.06285e+26
      1.34800  1.06118e+26
      1.34900  1.05396e+26
      1.35000  1.04875e+26
      1.35100  1.05240e+26
      1.35200  1.05434e+26
      1.35300  1.05257e+26
      1.35400  1.04770e+26
      1.35500  1.03942e+26
      1.35600  1.03606e+26
      1.35700  1.03788e+26
      1.35800  1.03995e+26
      1.35900  1.03422e+26
      1.36000  1.03623e+26
      1.36100  1.03995e+26
      1.36200  1.03331e+26
      1.36300  1.02987e+26
      1.36400  1.03099e+26
      1.36500  1.03344e+26
      1.36600  1.02820e+26
      1.36700  1.02450e+26
      1.36800  1.02159e+26
      1.36900  1.01694e+26
      1.37000  1.01344e+26
      1.37100  1.01546e+26
      1.37200  1.02169e+26
      1.37300  1.02085e+26
      1.37400  1.01575e+26
      1.37500  1.00944e+26
      1.37600  1.00373e+26
      1.37700  1.00804e+26
      1.37800  1.00803e+26
      1.37900  1.00986e+26
      1.38000  1.00737e+26
      1.38100  1.00379e+26
      1.38200  9.97100e+25
      1.38300  9.99632e+25
      1.38400  9.99611e+25
      1.38500  9.95466e+25
      1.38600  9.95854e+25
      1.38700  9.94773e+25
      1.38800  9.95427e+25
      1.38900  9.91167e+25
      1.39000  9.86680e+25
      1.39100  9.90577e+25
      1.39200  9.88514e+25
      1.39300  9.86303e+25
      1.39400  9.81147e+25
      1.39500  9.79986e+25
      1.39600  9.83745e+25
      1.39700  9.84494e+25
      1.39800  9.83525e+25
      1.39900  9.74953e+25
      1.40000  9.63569e+25
      1.40100  9.66064e+25
      1.40200  9.68815e+25
      1.40300  9.65020e+25
      1.40400  9.65886e+25
      1.40500  9.65966e+25
      1.40600  9.64872e+25
      1.40700  9.65778e+25
      1.40800  9.65766e+25
      1.40900  9.66531e+25
      1.41000  9.61467e+25
      1.41100  9.48912e+25
      1.41200  9.47893e+25
      1.41300  9.46882e+25
      1.41400  9.51741e+25
      1.41500  9.54934e+25
      1.41600  9.50933e+25
      1.41700  9.55368e+25
      1.41800  9.52699e+25
      1.41900  9.48246e+25
      1.42000  9.45705e+25
      1.42100  9.39781e+25
      1.42200  9.36950e+25
      1.42300  9.35102e+25
      1.42400  9.31364e+25
      1.42500  9.28454e+25
      1.42600  9.24000e+25
      1.42700  9.25274e+25
      1.42800  9.27290e+25
      1.42900  9.16948e+25
      1.43000  9.22808e+25
      1.43100  9.20773e+25
      1.43200  9.31478e+25
      1.43300  9.27243e+25
      1.43400  9.27042e+25
      1.43500  9.26287e+25
      1.43600  9.25481e+25
      1.43700  9.26314e+25
      1.43800  9.24936e+25
      1.43900  9.15232e+25
      1.44000  8.90351e+25
      1.44100  9.04179e+25
      1.44200  8.92289e+25
      1.44300  9.00054e+25
      1.44400  8.98254e+25
      1.44500  9.08473e+25
      1.44600  9.02738e+25
      1.44700  9.04566e+25
      1.44800  9.06576e+25
      1.44900  9.03924e+25
      1.45000  8.93587e+25
      1.45100  8.88852e+25
      1.45200  8.93796e+25
      1.45300  8.89903e+25
      1.45400  8.83723e+25
      1.45500  8.83929e+25
      1.45600  8.84182e+25
      1.45700  8.85846e+25
      1.45800  8.92402e+25
      1.45900  8.91612e+25
      1.46000  8.88862e+25
      1.46100  8.85414e+25
      1.46200  8.77653e+25
      1.46300  8.74456e+25
      1.46400  8.75661e+25
      1.46500  8.72801e+25
      1.46600  8.79261e+25
      1.46700  8.77501e+25
      1.46800  8.77122e+25
      1.46900  8.79338e+25
      1.47000  8.67317e+25
      1.47100  8.63879e+25
      1.47200  8.71397e+25
      1.47300  8.69406e+25
      1.47400  8.61118e+25
      1.47500  8.56394e+25
      1.47600  8.63899e+25
      1.47700  8.60260e+25
      1.47800  8.56760e+25
      1.47900  8.63185e+25
      1.48000  8.63978e+25
      1.48100  8.58064e+25
      1.48200  8.51159e+25
      1.48300  8.40367e+25
      1.48400  8.50071e+25
      1.48500  8.52235e+25
      1.48600  8.47660e+25
      1.48700  8.24612e+25
      1.48800  8.11474e+25
      1.48900  8.31334e+25
      1.49000  8.32252e+25
      1.49100  8.39422e+25
      1.49200  8.45732e+25
      1.49300  8.45093e+25
      1.49400  8.40469e+25
      1.49500  8.38149e+25
      1.49600  8.33296e+25
      1.49700  8.38739e+25
      1.49800  8.38495e+25
      1.49900  8.36923e+25
      1.50000  8.39923e+25
      1.50100  8.31270e+25
      1.50200  7.89458e+25
      1.50300  7.74037e+25
      1.50400  7.52502e+25
      1.50500  7.63475e+25
      1.50600  8.10665e+25
      1.50700  8.21840e+25
      1.50800  8.23596e+25
      1.50900  8.20934e+25
      1.51000  8.20637e+25
      1.51100  8.23541e+25
      1.51200  8.19780e+25
      1.51300  8.20560e+25
      1.51400  8.15858e+25
      1.51500  8.17469e+25
      1.51600  8.07907e+25
      1.51700  8.10471e+25
      1.51800  8.08895e+25
      1.51900  8.12793e+25
      1.52000  8.04675e+25
      1.52100  7.91236e+25
      1.52200  7.87750e+25
      1.52300  7.95925e+25
      1.52400  7.92909e+25
      1.52500  7.95733e+25
      1.52600  7.98085e+25
      1.52700  8.01908e+25
      1.52800  7.99618e+25
      1.52900  7.81547e+25
      1.53000  7.83663e+25
      1.53100  7.92279e+25
      1.53200  7.94754e+25
      1.53300  7.89068e+25
      1.53400  7.84405e+25
      1.53500  7.88474e+25
      1.53600  7.90628e+25
      1.53700  7.87258e+25
      1.53800  7.78331e+25
      1.53900  7.74094e+25
      1.54000  7.70584e+25
      1.54100  7.80071e+25
      1.54200  7.78502e+25
      1.54300  7.82015e+25
      1.54400  7.82781e+25
      1.54500  7.81227e+25
      1.54600  7.78153e+25
      1.54700  7.74190e+25
      1.54800  7.70537e+25
      1.54900  7.70879e+25
      1.55000  7.64122e+25
      1.55100  7.68582e+25
      1.55200  7.67842e+25
      1.55300  7.61356e+25
      1.55400  7.58063e+25
      1.55500  7.54505e+25
      1.55600  7.48240e+25
      1.55700  7.60477e+25
      1.55800  7.60435e+25
      1.55900  7.48463e+25
      1.56000  7.54233e+25
      1.56100  7.51345e+25
      1.56200  7.47889e+25
      1.56300  7.49584e+25
      1.56400  7.54996e+25
      1.56500  7.51314e+25
      1.56600  7.51456e+25
      1.56700  7.48723e+25
      1.56800  7.36468e+25
      1.56900  7.30764e+25
      1.57000  7.47142e+25
      1.57100  7.52136e+25
      1.57200  7.48527e+25
      1.57300  7.42182e+25
      1.57400  7.17228e+25
      1.57500  7.04986e+25
      1.57600  7.00982e+25
      1.57700  6.82221e+25
      1.57800  7.27218e+25
      1.57900  7.33377e+25
      1.58000  7.38526e+25
      1.58100  7.36659e+25
      1.58200  7.19173e+25
      1.58300  7.22144e+25
      1.58400  7.24480e+25
      1.58500  7.34179e+25
      1.58600  7.31164e+25
      1.58700  7.21535e+25
      1.58800  6.94793e+25
      1.58900  6.56121e+25
      1.59000  6.79143e+25
      1.59100  6.94489e+25
      1.59200  7.11358e+25
      1.59300  7.19835e+25
      1.59400  7.20864e+25
      1.59500  7.13164e+25
      1.59600  6.88405e+25
      1.59700  7.00193e+25
      1.59800  7.08772e+25
      1.59900  7.21348e+25
      1.60000  7.10585e+25
      1.60100  6.95578e+25
      1.60200  7.08729e+25
      1.60300  7.12374e+25
      1.60400  6.99794e+25
      1.60500  7.07903e+25
      1.60600  6.99800e+25
      1.60700  6.99359e+25
      1.60800  6.98822e+25
      1.60900  6.83725e+25
      1.61000  6.76608e+25
      1.61100  6.85764e+25
      1.61200  6.79254e+25
      1.61300  6.80500e+25
      1.61400  6.88680e+25
      1.61500  6.84942e+25
      1.61600  6.73999e+25
      1.61700  6.74104e+25
      1.61800  6.73052e+25
      1.61900  6.75178e+25
      1.62000  6.64208e+25
      1.62100  6.65938e+25
      1.62200  6.73357e+25
      1.62300  6.75304e+25
      1.62400  6.75271e+25
      1.62500  6.81433e+25
      1.62600  6.87024e+25
      1.62700  6.88930e+25
      1.62800  6.84939e+25
      1.62900  6.83564e+25
      1.63000  6.84456e+25
      1.63100  6.74862e+25
      1.63200  6.63707e+25
      1.63300  6.72785e+25
      1.63400  6.76280e+25
      1.63500  6.72429e+25
      1.63600  6.62664e+25
      1.63700  6.52473e+25
      1.63800  6.34621e+25
      1.63900  6.39567e+25
      1.64000  6.28028e+25
      1.64100  6.30132e+25
      1.64200  6.37110e+25
      1.64300  6.38457e+25
      1.64400  6.31531e+25
      1.64500  6.36691e+25
      1.64600  6.42314e+25
      1.64700  6.38882e+25
      1.64800  6.35973e+25
      1.64900  6.32195e+25
      1.65000  6.43218e+25
      1.65100  6.40214e+25
      1.65200  6.27847e+25
      1.65300  6.33436e+25
      1.65400  6.31227e+25
      1.65500  6.35178e+25
      1.65600  6.33115e+25
      1.65700  6.41352e+25
      1.65800  6.41268e+25
      1.65900  6.39893e+25
      1.66000  6.40695e+25
      1.66100  6.37642e+25
      1.66200  6.37074e+25
      1.66300  6.34858e+25
      1.66400  6.31937e+25
      1.66500  6.23301e+25
      1.66600  6.21759e+25
      1.66700  6.20993e+25
      1.66800  6.12991e+25
      1.66900  6.22065e+25
      1.67000  6.25140e+25
      1.67100  6.20528e+25
      1.67200  6.06599e+25
      1.67300  6.16804e+25
      1.67400  6.14929e+25
      1.67500  5.99075e+25
      1.67600  6.03133e+25
      1.67700  6.06911e+25
      1.67800  6.06449e+25
      1.67900  6.00595e+25
      1.68000  5.92378e+25
      1.68100  5.87934e+25
      1.68200  5.84313e+25
      1.68300  5.88421e+25
      1.68400  5.94786e+25
      1.68500  5.97885e+25
      1.68600  5.95804e+25
      1.68700  5.95145e+25
      1.68800  5.93749e+25
      1.68900  5.83530e+25
      1.69000  5.92969e+25
      1.69100  5.95300e+25
      1.69200  5.95044e+25
      1.69300  5.90543e+25
      1.69400  5.92370e+25
      1.69500  5.90411e+25
      1.69600  5.86447e+25
      1.69700  5.85157e+25
      1.69800  5.87580e+25
      1.69900  5.84778e+25
      1.70000  5.75685e+25
      1.70100  5.74501e+25
      1.70200  5.80504e+25
      1.70300  5.80511e+25
      1.70400  5.78567e+25
      1.70500  5.77827e+25
      1.70600  5.75756e+25
      1.70700  5.72646e+25
      1.70800  5.74173e+25
      1.70900  5.73189e+25
      1.71000  5.59311e+25
      1.71100  5.33847e+25
      1.71200  5.59385e+25
      1.71300  5.64586e+25
      1.71400  5.67743e+25
      1.71500  5.68017e+25
      1.71600  5.64518e+25
      1.71700  5.65655e+25
      1.71800  5.66480e+25
      1.71900  5.65397e+25
      1.72000  5.60938e+25
      1.72100  5.58180e+25
      1.72200  5.54375e+25
      1.72300  5.47606e+25
      1.72400  5.53263e+25
      1.72500  5.56257e+25
      1.72600  5.55483e+25
      1.72700  5.51483e+25
      1.72800  5.46399e+25
      1.72900  5.48830e+25
      1.73000  5.45217e+25
      1.73100  5.44659e+25
      1.73200  5.32402e+25
      1.73300  5.16678e+25
      1.73400  5.19439e+25
      1.73500  5.22091e+25
      1.73600  5.16201e+25
      1.73700  5.18817e+25
      1.73800  5.24812e+25
      1.73900  5.28332e+25
      1.74000  5.26176e+25
      1.74100  5.21759e+25
      1.74200  5.29864e+25
      1.74300  5.30795e+25
      1.74400  5.31977e+25
      1.74500  5.23812e+25
      1.74600  5.21813e+25
      1.74700  5.17326e+25
      1.74800  5.22105e+25
      1.74900  5.26606e+25
      1.75000  5.23952e+25
      1.75100  5.20754e+25
      1.75200  5.19755e+25
      1.75300  5.20035e+25
      1.75400  5.18331e+25
      1.75500  5.16964e+25
      1.75600  5.19280e+25
      1.75700  5.18629e+25
      1.75800  5.14549e+25
      1.75900  5.16948e+25
      1.76000  5.14045e+25
      1.76100  5.02975e+25
      1.76200  5.00391e+25
      1.76300  5.07393e+25
      1.76400  5.07048e+25
      1.76500  5.11696e+25
      1.76600  5.10907e+25
      1.76700  5.08742e+25
      1.76800  5.08569e+25
      1.76900  5.06800e+25
      1.77000  5.03731e+25
      1.77100  5.04443e+25
      1.77200  5.05980e+25
      1.77300  5.06217e+25
      1.77400  5.04234e+25
      1.77500  5.00632e+25
      1.77600  4.96448e+25
      1.77700  4.91503e+25
      1.77800  4.94687e+25
      1.77900  4.92856e+25
      1.78000  4.95746e+25
      1.78100  4.94246e+25
      1.78200  4.91568e+25
      1.78300  4.90536e+25
      1.78400  4.88088e+25
      1.78500  4.87503e+25
      1.78600  4.90995e+25
      1.78700  4.92335e+25
      1.78800  4.91658e+25
      1.78900  4.89599e+25
      1.79000  4.88650e+25
      1.79100  4.86710e+25
      1.79200  4.84612e+25
      1.79300  4.82701e+25
      1.79400  4.81203e+25
      1.79500  4.82038e+25
      1.79600  4.80062e+25
      1.79700  4.79523e+25
      1.79800  4.80515e+25
      1.79900  4.80782e+25
      1.80000  4.77753e+25
      1.80100  4.74365e+25
      1.80200  4.69984e+25
      1.80300  4.73019e+25
      1.80400  4.76180e+25
      1.80500  4.76472e+25
      1.80600  4.74920e+25
      1.80700  4.74633e+25
      1.80800  4.74969e+25
      1.80900  4.75243e+25
      1.81000  4.75190e+25
      1.81100  4.73371e+25
      1.81200  4.71932e+25
      1.81300  4.70715e+25
      1.81400  4.66287e+25
      1.81500  4.61637e+25
      1.81600  4.51113e+25
      1.81700  4.34015e+25
      1.81800  4.31103e+25
      1.81900  4.42469e+25
      1.82000  4.50139e+25
      1.82100  4.50876e+25
      1.82200  4.48998e+25
      1.82300  4.54172e+25
      1.82400  4.57742e+25
      1.82500  4.57919e+25
      1.82600  4.58470e+25
      1.82700  4.57413e+25
      1.82800  4.52738e+25
      1.82900  4.52046e+25
      1.83000  4.52944e+25
      1.83100  4.52524e+25
      1.83200  4.46981e+25
      1.83300  4.45997e+25
      1.83400  4.47668e+25
      1.83500  4.46059e+25
      1.83600  4.45529e+25
      1.83700  4.42341e+25
      1.83800  4.40451e+25
      1.83900  4.40446e+25
      1.84000  4.40308e+25
      1.84100  4.39334e+25
      1.84200  4.31700e+25
      1.84300  4.33116e+25
      1.84400  4.34889e+25
      1.84500  4.36886e+25
      1.84600  4.30325e+25
      1.84700  4.22069e+25
      1.84800  4.29285e+25
      1.84900  4.32919e+25
      1.85000  4.35293e+25
      1.85100  4.34878e+25
      1.85200  4.31054e+25
      1.85300  4.29355e+25
      1.85400  4.30999e+25
      1.85500  4.26280e+25
      1.85600  4.25972e+25
      1.85700  4.30040e+25
      1.85800  4.28981e+25
      1.85900  4.24941e+25
      1.86000  4.23933e+25
      1.86100  4.23624e+25
      1.86200  4.24574e+25
      1.86300  4.24921e+25
      1.86400  4.24799e+25
      1.86500  4.24535e+25
      1.86600  4.19287e+25
      1.86700  4.19666e+25
      1.86800  4.21242e+25
      1.86900  4.24888e+25
      1.87000  4.24226e+25
      1.87100  4.21024e+25
      1.87200  4.13707e+25
      1.87300  4.08786e+25
      1.87400  3.91747e+25
      1.87500  3.64245e+25
      1.87600  3.75656e+25
      1.87700  3.94245e+25
      1.87800  4.04516e+25
      1.87900  4.08421e+25
      1.88000  4.10951e+25
      1.88100  4.14871e+25
      1.88200  4.14430e+25
      1.88300  4.14623e+25
      1.88400  4.12250e+25
      1.88500  4.07182e+25
      1.88600  4.05411e+25
      1.88700  4.09649e+25
      1.88800  4.08720e+25
      1.88900  4.04596e+25
      1.89000  4.00577e+25
      1.89100  4.01334e+25
      1.89200  3.95120e+25
      1.89300  3.92581e+25
      1.89400  3.95025e+25
      1.89500  3.90447e+25
      1.89600  3.85299e+25
      1.89700  3.89607e+25
      1.89800  3.91860e+25
      1.89900  3.90104e+25
      1.90000  3.94653e+25
      1.90100  3.97132e+25
      1.90200  3.95635e+25
      1.90300  3.90710e+25
      1.90400  3.91951e+25
      1.90500  3.91220e+25
      1.90600  3.91673e+25
      1.90700  3.89451e+25
      1.90800  3.87661e+25
      1.90900  3.89201e+25
      1.91000  3.87612e+25
      1.91100  3.82994e+25
      1.91200  3.82304e+25
      1.91300  3.84944e+25
      1.91400  3.85458e+25
      1.91500  3.84187e+25
      1.91600  3.83021e+25
      1.91700  3.82815e+25
      1.91800  3.80524e+25
      1.91900  3.77163e+25
      1.92000  3.76020e+25
      1.92100  3.79838e+25
      1.92200  3.79460e+25
      1.92300  3.77510e+25
      1.92400  3.78409e+25
      1.92500  3.79228e+25
      1.92600  3.78120e+25
      1.92700  3.76108e+25
      1.92800  3.71600e+25
      1.92900  3.69178e+25
      1.93000  3.70870e+25
      1.93100  3.69029e+25
      1.93200  3.68548e+25
      1.93300  3.69450e+25
      1.93400  3.72625e+25
      1.93500  3.72188e+25
      1.93600  3.74657e+25
      1.93700  3.74971e+25
      1.93800  3.70749e+25
      1.93900  3.64327e+25
      1.94000  3.68468e+25
      1.94100  3.68082e+25
      1.94200  3.63211e+25
      1.94300  3.51429e+25
      1.94400  3.37440e+25
      1.94500  3.29718e+25
      1.94600  3.41376e+25
      1.94700  3.51215e+25
      1.94800  3.57386e+25
      1.94900  3.56949e+25
      1.95000  3.54449e+25
      1.95100  3.48641e+25
      1.95200  3.56813e+25
      1.95300  3.60209e+25
      1.95400  3.61497e+25
      1.95500  3.60371e+25
      1.95600  3.59535e+25
      1.95700  3.58704e+25
      1.95800  3.58034e+25
      1.95900  3.56226e+25
      1.96000  3.55369e+25
      1.96100  3.52792e+25
      1.96200  3.48874e+25
      1.96300  3.44606e+25
      1.96400  3.45099e+25
      1.96500  3.46804e+25
      1.96600  3.46315e+25
      1.96700  3.48873e+25
      1.96800  3.48964e+25
      1.96900  3.48765e+25
      1.97000  3.49138e+25
      1.97100  3.46868e+25
      1.97200  3.39843e+25
      1.97300  3.39066e+25
      1.97400  3.41649e+25
      1.97500  3.44300e+25
      1.97600  3.44246e+25
      1.97700  3.40460e+25
      1.97800  3.34958e+25
      1.97900  3.37847e+25
      1.98000  3.36964e+25
      1.98100  3.38074e+25
      1.98200  3.39472e+25
      1.98300  3.39023e+25
      1.98400  3.36508e+25
      1.98500  3.33634e+25
      1.98600  3.32157e+25
      1.98700  3.34372e+25
      1.98800  3.37003e+25
      1.98900  3.37400e+25
      1.99000  3.37265e+25
      1.99100  3.35670e+25
      1.99200  3.31584e+25
      1.99300  3.27643e+25
      1.99400  3.28905e+25
      1.99500  3.30966e+25
      1.99600  3.29646e+25
      1.99700  3.26789e+25
      1.99800  3.27381e+25
      1.99900  3.29063e+25
